Frequency (Hz),Trace |Z| (Ohm)
1000,1649523.032
1331.103679,1265520.204
1662.207358,1021569.07
1993.311037,859856.8067
2324.414716,740668.9487
2655.518395,648773.3271
2986.622074,578821.0347
3317.725753,522614.4592
3648.829431,477033.4911
3979.93311,438475.1709
4311.036789,406728.5551
4642.140468,378654.4349
4973.244147,355100.9035
5304.347826,335102.7244
5635.451505,316469.0972
5966.555184,301096.1392
6297.658863,286408.5933
6628.762542,273856.3681
6959.866221,262770.1238
7290.9699,252677.8279
7622.073579,243452.6115
7953.177258,235143.2958
8284.280936,227477.866
8615.384615,220942.9168
8946.488294,214592.3489
9277.591973,208613.5713
9608.695652,203275.6242
9939.799331,198533.283
10270.90301,193436.0827
10602.00669,189446.4682
10933.11037,185270.208
11264.21405,181881.3127
11595.31773,178257.5426
11926.4214,175128.6727
12257.52508,172065.4908
12588.62876,169268.1776
12919.73244,166818.0826
13250.83612,164276.2754
13581.9398,161905.3277
13913.04348,159641.4461
14244.14716,157679.7089
14575.25084,155579.3655
14906.35452,153955.2679
15237.45819,151937.184
15568.56187,150403.9779
15899.66555,148765.7894
16230.76923,147218.7462
16561.87291,145979.6378
16892.97659,144621.0559
17224.08027,143101.4692
17555.18395,141903.9721
17886.28763,140705.5224
18217.3913,139851.261
18548.49498,138441.4425
18879.59866,137527.9433
19210.70234,136691.5284
19541.80602,135620.2362
19872.9097,135081.356
20204.01338,133895.2373
20535.11706,133128.5852
20866.22074,132497.5712
21197.32441,131593.6122
21528.42809,130720.6963
21859.53177,129867.1552
22190.63545,129472.7125
22521.73913,128769.0851
22852.84281,128235.1841
23183.94649,127543.0453
23515.05017,126909.7332
23846.15385,126434.3232
24177.25753,125923.4752
24508.3612,125422.0801
24839.46488,125055.8429
25170.56856,124343.4765
25501.67224,124122.4707
25832.77592,123686.2118
26163.8796,123170.4249
26494.98328,122847.1666
26826.08696,122408.7638
27157.19064,121981.2401
27488.29431,121889.7903
27819.39799,121411.1191
28150.50167,121120.9687
28481.60535,120805.2479
28812.70903,120530.931
29143.81271,120359.0583
29474.91639,120123.3794
29806.02007,119584.2142
30137.12375,119382.39
30468.22742,119152.0174
30799.3311,118977.5001
31130.43478,118518.8931
31461.53846,118414.5317
31792.64214,118144.881
32123.74582,117946.6132
32454.8495,117718.6761
32785.95318,117334.222
33117.05686,117444.8981
33448.16054,117076.8956
33779.26421,116890.9982
34110.36789,116646.3889
34441.47157,116468.8002
34772.57525,116307.0364
35103.67893,116192.3213
35434.78261,115922.6769
35765.88629,115730.4007
36096.98997,115541.7087
36428.09365,115330.2803
36759.19732,115325.1188
37090.301,114840.8064
37421.40468,114807.8674
37752.50836,114559.2272
38083.61204,114435.6368
38414.71572,114418.1757
38745.8194,114120.2476
39076.92308,114177.0581
39408.02676,113866.9961
39739.13043,113715.1182
40070.23411,113848.3569
40401.33779,113326.356
40732.44147,113505.8723
41063.54515,113144.3153
41394.64883,113141.4129
41725.75251,112888.3948
42056.85619,113069.583
42387.95987,112735.2783
42719.06355,112508.5962
43050.16722,112489.8674
43381.2709,112208.8555
43712.37458,112299.4011
44043.47826,111873.4787
44374.58194,111866.0088
44705.68562,111866.3936
45036.7893,111442.5588
45367.89298,111591.3777
45698.99666,111399.4942
46030.10033,111204.0433
46361.20401,111203.7976
46692.30769,110984.7007
47023.41137,111098.2361
47354.51505,111122.7552
47685.61873,110790.9088
48016.72241,110744.1757
48347.82609,110900.5153
48678.92977,110803.2327
49010.03344,110311.9555
49341.13712,110387.0965
49672.2408,110582.1623
50003.34448,110227.1405
50334.44816,110445.0061
50665.55184,110406.8552
50996.65552,110196.6085
51327.7592,109847.989
51658.86288,109564.7737
51989.96656,109834.3201
52321.07023,110024.3025
52652.17391,109582.7185
52983.27759,109715.2605
53314.38127,109506.4562
53645.48495,109457.5273
53976.58863,109453.2402
54307.69231,109262.678
54638.79599,109215.8264
54969.89967,109126.2191
55301.00334,109083.4008
55632.10702,109320.3196
55963.2107,109054.1384
56294.31438,108737.9294
56625.41806,108815.8633
56956.52174,108781.213
57287.62542,108738.2807
57618.7291,108639.1269
57949.83278,108545.2241
58280.93645,108429.3072
58612.04013,108697.8499
58943.14381,108453.2876
59274.24749,108089.1716
59605.35117,108052.5745
59936.45485,108244.1331
60267.55853,107890.4894
60598.66221,108008.312
60929.76589,107783.1088
61260.86957,107744.4186
61591.97324,108023.4025
61923.07692,107601.1139
62254.1806,107646.6751
62585.28428,107539.841
62916.38796,107447.9715
63247.49164,107261.8756
63578.59532,107236.3639
63909.699,107362.9921
64240.80268,107274.4153
64571.90635,107162.6782
64903.01003,106938.003
65234.11371,106828.2467
65565.21739,107099.266
65896.32107,106875.5925
66227.42475,106776.1707
66558.52843,106728.1811
66889.63211,106431.9658
67220.73579,106351.6336
67551.83946,106485.3795
67882.94314,106823.2478
68214.04682,106265.2111
68545.1505,106367.03
68876.25418,105929.248
69207.35786,106212.4468
69538.46154,106148.7206
69869.56522,106291.7854
70200.6689,106256.8368
70531.77258,105965.2554
70862.87625,105694.56
71193.97993,105776.4933
71525.08361,105919.4443
71856.18729,105744.2946
72187.29097,105739.7341
72518.39465,105879.0784
72849.49833,105703.5481
73180.60201,105912.4788
73511.70569,105598.363
73842.80936,105483.9584
74173.91304,105201.5422
74505.01672,105375.1277
74836.1204,105441.8962
75167.22408,105021.8308
75498.32776,104937.4218
75829.43144,105134.7869
76160.53512,105012.4677
76491.6388,104910.8306
76822.74247,105239.5841
77153.84615,105126.2472
77484.94983,104973.1917
77816.05351,104590.1585
78147.15719,104704.3078
78478.26087,104842.8954
78809.36455,104720.6088
79140.46823,104510.8854
79471.57191,104642.6217
79802.67559,103961.4691
80133.77926,104362.836
80464.88294,104008.4575
80795.98662,104456.3745
81127.0903,104359.9134
81458.19398,104208.9592
81789.29766,103760.778
82120.40134,104246.9016
82451.50502,103779.3226
82782.6087,103852.2088
83113.71237,104071.0703
83444.81605,103812.4471
83775.91973,103690.2008
84107.02341,103954.006
84438.12709,103638.055
84769.23077,103468.1979
85100.33445,103436.8323
85431.43813,103772.352
85762.54181,103490.2865
86093.64548,103574.6361
86424.74916,103597.6866
86755.85284,103259.6326
87086.95652,103292.7017
87418.0602,103100.347
87749.16388,103288.5154
88080.26756,102989.9149
88411.37124,103334.0573
88742.47492,102564.2776
89073.5786,102729.8837
89404.68227,103298.31
89735.78595,102577.0019
90066.88963,102778.7248
90397.99331,102924.4653
90729.09699,102681.7822
91060.20067,102947.1933
91391.30435,102438.5877
91722.40803,102672.5904
92053.51171,101880.8361
92384.61538,102596.5897
92715.71906,102288.0958
93046.82274,102904.0781
93377.92642,102407.3165
93709.0301,102455.3336
94040.13378,102365.2378
94371.23746,101971.5556
94702.34114,100828.0415
95033.44482,101894.398
95364.54849,102242.3587
95695.65217,101561.822
96026.75585,101702.5298
96357.85953,101570.3122
96688.96321,101595.3526
97020.06689,101593.071
97351.17057,101575.2891
97682.27425,101676.7331
98013.37793,101222.9158
98344.48161,102017.9756
98675.58528,101990.3329
99006.68896,101066.1096
99337.79264,101247.0223
99668.89632,100672.2077
100000,101096.1555
